 s07_AV97 Record=19: AVIRIS 1997 Wavelengths (microns) 224ch 
 3.6985004e-001
 3.7969002e-001
 3.8953000e-001
 3.9937001e-001
 4.0921003e-001
 4.1905999e-001
 4.2891002e-001
 4.3875998e-001
 4.4861001e-001
 4.5846000e-001
 4.6831000e-001
 4.7816998e-001
 4.8802000e-001
 4.9788001e-001
 5.0774002e-001
 5.1760000e-001
 5.2746999e-001
 5.3732997e-001
 5.4720002e-001
 5.5707002e-001
 5.6693995e-001
 5.7681000e-001
 5.8667994e-001
 5.9656006e-001
 6.0642999e-001
 6.1631000e-001
 6.2619001e-001
 6.3606995e-001
 6.4596003e-001
 6.5584004e-001
 6.6573000e-001
 6.7562002e-001
 6.6414005e-001
 6.7372006e-001
 6.8330002e-001
 6.9288003e-001
 7.0245999e-001
 7.1203995e-001
 7.2162992e-001
 7.3120993e-001
 7.4080002e-001
 7.5037998e-001
 7.5996995e-001
 7.6956004e-001
 7.7914000e-001
 7.8872997e-001
 7.9832000e-001
 8.0791003e-001
 8.1750005e-001
 8.2709002e-001
 8.3667994e-001
 8.4627998e-001
 8.5587001e-001
 8.6546999e-001
 8.7506002e-001
 8.8466001e-001
 8.9424998e-001
 9.0385002e-001
 9.1345000e-001
 9.2304999e-001
 9.3263990e-001
 9.4223994e-001
 9.5185000e-001
 9.6144998e-001
 9.7104996e-001
 9.8064995e-001
 9.9024999e-001
 9.9986005e-001
 1.0094599e+000
 1.0190699e+000
 1.0286800e+000
 1.0382800e+000
 1.0478899e+000
 1.0574999e+000
 1.0671099e+000
 1.0767201e+000
 1.0863302e+000
 1.0959401e+000
 1.1055499e+000
 1.1151600e+000
 1.1247799e+000
 1.1343900e+000
 1.1440099e+000
 1.1536200e+000
 1.1632401e+000
 1.1728600e+000
 1.1824700e+000
 1.1920900e+000
 1.2017101e+000
 1.2113302e+000
 1.2209500e+000
 1.2305700e+000
 1.2401900e+000
 1.2498200e+000
 1.2594399e+000
 1.2690599e+000
 1.2543200e+000
 1.2642800e+000
 1.2742401e+000
 1.2842001e+000
 1.2941500e+000
 1.3041099e+000
 1.3140699e+000
 1.3240299e+000
 1.3339900e+000
 1.3439499e+000
 1.3539100e+000
 1.3638699e+000
 1.3738201e+000
 1.3837800e+000
 1.3937401e+000
 1.4037000e+000
 1.4136599e+000
 1.4236100e+000
 1.4335699e+000
 1.4435300e+000
 1.4534899e+000
 1.4634399e+000
 1.4734000e+000
 1.4833601e+000
 1.4933101e+000
 1.5032700e+000
 1.5132301e+000
 1.5231800e+000
 1.5331401e+000
 1.5431000e+000
 1.5530499e+000
 1.5630100e+000
 1.5729700e+000
 1.5829201e+000
 1.5928800e+000
 1.6028301e+000
 1.6127900e+000
 1.6227400e+000
 1.6327000e+000
 1.6426499e+000
 1.6526099e+000
 1.6625599e+000
 1.6725200e+000
 1.6824700e+000
 1.6924300e+000
 1.7023801e+000
 1.7123401e+000
 1.7222900e+000
 1.7322500e+000
 1.7422000e+000
 1.7521499e+000
 1.7621100e+000
 1.7720600e+000
 1.7820201e+000
 1.7919701e+000
 1.8019201e+000
 1.8118800e+000
 1.8218300e+000
 1.8317800e+000
 1.8417300e+000
 1.8516899e+000
 1.8616400e+000
 1.8715900e+000
 1.8815401e+000
 1.8783001e+000
 1.8883401e+000
 1.8983901e+000
 1.9084300e+000
 1.9184599e+000
 1.9284999e+000
 1.9385300e+000
 1.9485599e+000
 1.9585899e+000
 1.9686199e+000
 1.9786401e+000
 1.9886700e+000
 1.9986900e+000
 2.0086999e+000
 2.0187199e+000
 2.0287299e+000
 2.0387399e+000
 2.0487499e+000
 2.0587599e+000
 2.0687599e+000
 2.0787699e+000
 2.0887699e+000
 2.0987699e+000
 2.1087599e+000
 2.1187599e+000
 2.1287498e+000
 2.1387398e+000
 2.1487198e+000
 2.1587098e+000
 2.1686897e+000
 2.1786699e+000
 2.1886499e+000
 2.1986299e+000
 2.2086000e+000
 2.2185700e+000
 2.2285399e+000
 2.2385099e+000
 2.2484801e+000
 2.2584400e+000
 2.2684000e+000
 2.2783599e+000
 2.2883198e+000
 2.2982700e+000
 2.3082199e+000
 2.3181698e+000
 2.3281198e+000
 2.3380699e+000
 2.3480098e+000
 2.3579500e+000
 2.3678896e+000
 2.3778298e+000
 2.3877599e+000
 2.3976898e+000
 2.4076202e+000
 2.4175501e+000
 2.4274802e+000
 2.4374001e+000
 2.4473200e+000
 2.4572401e+000
 2.4671600e+000
 2.4770801e+000
 2.4869900e+000
 2.4969001e+000
 2.5068099e+000
